# Result: 'acouPressure' on node(s) 'mic2' number #2111
# f (Hz)  real (Pa)  imag (Pa)  
# ---------------------------------------------------------------------------
377  -25.477638169894405  7.5126127751216094
397.289  -20.08140779091017  7.0254180519033067
417.577  -15.554505051141783  6.7272548113213189
437.866  -11.577922110798919  6.5888577385086542
458.154  -7.9233976065367422  6.6037662412008071
478.443  -4.4101246838307349  6.783918217422646
498.732  -0.87683105074552592  7.1609965503109176
519.02  2.8400538638212032  7.7935387941333643
539.309  6.9279461064467114  8.7826706966155275
559.597  11.624252862059691  10.304050695849108
579.886  17.251900626731871  12.674251065193245
600.174  24.265676177025298  16.496989995176921
620.463  33.283482430872503  23.009515101960769
640.752  44.908054890220271  34.959433258682196
661.04  58.144112640352724  58.786696006534818
681.329  61.011070099978468  107.10621913477715
701.617  6.4861912415985401  169.12626992024144
721.906  -87.596947677315541  147.20004956079802
742.195  -111.8798649319104  84.114203476291664
762.483  -103.13492671674456  47.207490205082138
782.772  -91.548567786126014  28.508486861320453
803.06  -82.35331584640717  18.187366382796057
823.349  -75.579688129261172  11.809113291317686
843.638  -70.635927625246566  7.4317768784563309
863.926  -67.02700382118995  4.1420970843688822
884.215  -64.414266905679298  1.471541991699636
904.503  -62.579355862648868  -0.84664282927332057
924.792  -61.385570685050403  -2.9876012241550662
945.081  -60.747871830127437  -5.0901913908542564
965.369  -60.608424522678895  -7.2880167523226005
985.658  -60.912933729376618  -9.7278255919210075
1005.95  -61.5836537941559  -12.578140483193632
1026.23  -62.486192314148745  -16.024919265175477
1046.52  -63.391451432496119  -20.244269238229609
1066.81  -63.947292883782175  -25.336841871210694
1087.1  -63.700466517093545  -31.218552487630106
1107.39  -62.227740467140173  -37.512504360934877
1127.68  -59.379884851088221  -43.567150702526021
1147.97  -55.480397837838467  -48.710714281716506
1168.26  -51.243496059235312  -52.62291029172232
1188.54  -47.421196749741767  -55.509338553948609
1208.83  -44.480510719121341  -57.959877286036104
1229.12  -42.513126397760949  -60.695117156393849
1249.41  -41.29872471972029  -64.413076859151289
1269.7  -40.354593648163622  -69.761282446636002
1289.99  -38.871701032068209  -77.34094816911599
1310.28  -35.509256456240799  -87.598425850513209
1330.56  -28.128704744628958  -100.36813551258054
1350.85  -13.934917481786437  -113.77338814240848
1371.14  8.7449201765737765  -122.90905263489775
1391.43  36.648773515309252  -121.20311813092812
1411.72  61.032361957732292  -106.75617121042085
1432.01  75.147053614341161  -85.532009040755568
1452.3  79.384755687150985  -64.982895055284473
1472.58  77.711089944556889  -48.609403424644
1492.87  73.527175371172618  -36.635219909243773
1513.16  68.731201460015924  -28.129657160560861
1533.45  64.176758012292638  -22.097231032746098
1553.74  60.182450573095281  -17.772105897099888
1574.03  56.829864378637758  -14.621714931027098
1594.32  54.108244357630454  -12.286885886386196
1614.6  51.979757324951223  -10.525517872105176
1634.89  50.408299554947462  -9.1716684547146876
1655.18  49.372965286407144  -8.1076667823336663
1675.47  48.87633047447671  -7.2446371813468096
1695.76  48.95307299991471  -6.507056769146156
1716.05  49.683274297332275  -5.8166738464238996
1736.34  51.216023409782053  -5.0684148935629141
1756.62  53.812936707923285  -4.0816613646236126
1776.91  57.927840878278985  -2.4806216206437184
1797.2  64.333617060586903  0.64389187072103138
1817.49  74.131791118423266  7.8049590490495797
1837.78  86.682427033428127  26.420532440191046
1858.07  82.713027446537311  68.916703279871186
1878.36  27.731507506740947  89.55740174756987
1898.64  -3.1456444506618544  58.954542543301613
1918.93  -4.4883176219183669  36.038758672735256
1939.22  -0.28720503292315469  24.180575238343437
1959.51  3.9994497947035121  17.739941805174492
1979.8  7.6674770598310547  13.943161283016254
2000.09  10.801648584227115  11.557534657475525
2020.38  13.577487651643183  9.9967250724842849
2040.66  16.149443580191974  8.9596009788157218
2060.95  18.643584271415754  8.2822821368015305
2081.24  21.167434647081588  7.8732285023888338
2101.53  23.821091456381993  7.6830682545611637
2121.82  26.707748573125439  7.6904469187438682
2142.11  29.944709981233057  7.8963849294828332
2162.4  33.676915270104466  8.3244345130857624
2182.68  38.096084369570626  9.0266661545694049
2202.97  43.470789589025934  10.098268447995254
2223.26  50.197522739424095  11.708433786987252
2243.55  58.893470913969686  14.166888473248989
2263.84  70.576756013256613  18.078145497094496
2284.13  87.041727103741763  24.740942882417571
2304.42  111.6872682805388  37.350940444122138
2324.7  151.24805987688384  65.442491528296728
2344.99  214.95398354634429  146.04190123045382
2365.28  195.96973718546596  423.42747935923734
2385.57  -271.42116377369399  373.60573609337467
2405.86  -245.21378038595245  116.30165034668455
2426.15  -177.10082035131478  47.884465588916264
2446.44  -137.07220975331495  24.844179598560338
2466.72  -112.64099004708635  14.834189495836617
2487.01  -96.649725230878218  9.6960056980970162
2507.3  -85.620616412105534  6.7401539568308513
2527.59  -77.749150624060036  4.891620540444503
2547.88  -72.028723727771279  3.6569420121071823
2568.17  -67.8652607835552  2.7845975199652839
2588.46  -64.895483395946641  2.1349661112875062
2608.74  -62.895671071453222  1.6242564499341172
2629.03  -61.734098717574327  1.1977513954716026
2649.32  -61.346689139556638  0.81561341057947545
2669.61  -61.726850197086357  0.4441266952079545
2689.9  -62.926223857902734  0.048735175310973412
2710.19  -65.067041061038807  -0.41383178664403797
2730.48  -68.371345902042606  -1.0078920881341538
2750.77  -73.22062634924427  -1.8428006115024138
2771.05  -80.278532373301857  -3.1269913140690582
2791.34  -90.760634097531565  -5.3071884731086056
2811.63  -107.09178498016853  -9.48901930247448
2831.92  -134.74027664346718  -19.018230648814875
2852.21  -188.02898256080334  -47.739226341554669
2872.5  -293.43211025200856  -190.38339962484852
2892.79  140.15849441853871  -484.42361396475729
2913.07  188.72456829495385  -113.09329500990344
2933.36  113.81153954943719  -42.545691830135475
2953.65  76.096537445966732  -22.620445110213666
2973.94  54.564102960630613  -14.441806092589928
2994.23  40.744558386461875  -10.310791614998061
3014.52  31.089273756687096  -7.9440260581361795
3034.81  23.891836697046681  -6.4744817126603023
3055.09  18.233706884821679  -5.5150341107857077
3075.38  13.573135935060929  -4.8724487257361471
3095.67  9.5639517066259092  -4.4426904913661991
3115.96  5.9668486368213527  -4.1673439432007484
3136.25  2.6014811761607293  -4.0138017557633106
3156.54  -0.68247355708024959  -3.9659076340768307
3176.83  -4.0257234615753434  -4.0198839928240959
3197.11  -7.5772682757883683  -4.1836029049524139
3217.4  -11.514663271602187  -4.4789301393446923
3237.69  -16.07268002974839  -4.9483745546308091
3257.98  -21.590897533884135  -5.6698312869949952
3278.27  -28.602544713720455  -6.7894392152197742
3298.56  -38.01856618929763  -8.6008953946731204
3318.85  -51.555325204281672  -11.763185946554506
3339.13  -72.882408245621278  -18.020937250933056
3359.42  -111.35158147880284  -33.36664584812268
3379.71  -196.79410030306212  -90.446088315701516
3400  -245.73716658601796  -550.22506388715613
